测点名称    
J7point(N)

位置初始值(mm)
0.0338  
速度初始值(mm/d)
0       

观测噪声协方差(mm^2)  状态噪声协方差(mm^2)
3.404                   0.308   

状态模型    
常速度模型   

滤波方法    
抗差Kalman滤波

监测期号    原始坐标序列(mm)    滤波值(mm)    预测值(mm) 
1              0.177            0.0885         0.0338         
2              -0.342           -0.0336        0.091          
3              -0.136           -0.0584        -0.0368        
4              -1.776           -0.3946        -0.0628        
5              -0.135           -0.3591        -0.4154        
6              2.191            -0.1504        -0.3775        
7              2.495            0.0331         -0.1572        
8              -2.283           -0.187         0.0367         
9              0.051            -0.1608        -0.1962        
10             0.372            -0.1006        -0.1682        
11             0.949            0.016          -0.104         
12             -0.228           -0.0083        0.0201         
13             0.259            0.0202         -0.006         
14             0.005            0.0206         0.0245         
15             -0.075           0.0133         0.0248         
16             -2.384           -0.1192        0.0167         
17             -0.044           -0.1151        -0.1256        
18             -1.494           -0.2436        -0.1209        
19             0.087            -0.221         -0.259         
20             -2.216           -0.3926        -0.234         
21             -1.707           -0.519         -0.4185        
22             2.288            -0.5228        -0.8317        
23             2.675            -0.4174        -0.5464        
24             -1.58            -0.5951        -0.4325        
25             0.427            -0.4673        -0.6223        
26             1.044            -0.2819        -0.4846        
27             0.82             -0.151         -0.2858        
28             0.163            -0.1128        -0.1457        
29             0.158            -0.0799        -0.1051        
30             -0.121           -0.0799        -0.0703        
31             0.317            -0.0358        -0.0705        
32             -1.034           -0.1272        -0.0238        
33             -0.897           -0.1971        -0.1218        
34             -0.636           -0.2369        -0.1965        
35             -0.43            -0.2551        -0.2391        
36             -1.447           -0.3602        -0.2584        
37             -0.462           -0.3735        -0.3704        
38             -0.817           -0.4154        -0.3843        
39             0.287            -0.364         -0.4287        
40             -1.486           -0.4587        -0.3733        
41             0.24             -0.4103        -0.4741        
42             -0.215           -0.4004        -0.4219        
43             -0.251           -0.3937        -0.4109        
44             -1.572           -0.4884        -0.4034        
45             0.754            -0.4015        -0.5043        
46             2.455            -0.3374        -0.4109        
47             1.433            -0.203         -0.342         
48             1.689            -0.0564        -0.1982        
49             1.689            0.1304         0.0032         
50             1.689            0.2778         0.1517         
51             1.689            0.4675         0.3892         
52             1.689            0.594          0.4948         
53             1.689            0.7283         0.6656         
54             1.689            0.8418         0.7868         
55             1.689            0.9457         0.9059         
56             1.689            1.0412         1.0146         
57             1.689            1.7518         2.4996         
58             -0.398           1.4113         1.8237         
59             -0.808           1.1277         1.4629         
60             -1.146           0.8817         1.1628         
61             -0.394           0.7113         0.9028         
62             -0.923           0.505          0.7227         
63             0.426            0.4956         0.5051         
64             -1.378           0.2849         0.4952         
65             0.367            0.2883         0.2731         
66             -0.568           0.197          0.2771         
67             -0.358           0.1364         0.181          
68             -0.971           0.0256         0.1175         
69             1.546            0.1497         0.001          
70             2.892            0.2317         0.1329         
71             0.993            0.2922         0.2201         
72             -0.29            0.2398         0.2845         
73             -0.368           0.1851         0.2292         
74             3.879            0.2029         0.1716         
75             -1.024           0.0947         0.1908         
76             0.527            0.1216         0.0763         
77             0.921            0.1782         0.1055         
78             1.271            0.2585         0.1662         
79             -0.412           0.2037         0.252          
80             -0.037           0.1808         0.1938         
81             -0.96            0.0899         0.1698         
82             -0.784           0.0172         0.0733         
83             -3.046           -0.0376        0.0106         
84             -1.931           -0.3289        -0.2246        
85             0.076            -0.3031        -0.3664        
86             -1.02            -0.391         -0.3376        
87             1.623            -0.2315        -0.4301        
88             2.751            -0.1658        -0.259         
89             0.963            -0.0677        -0.188         
90             -0.02            -0.0702        -0.0828        
91             -0.532           -0.1185        -0.0849        
92             5.691            -0.1272        -0.1359        
93             -0.152           -0.1374        -0.1446        
94             0.748            -0.0653        -0.1549        
95             0.705            -0.003         -0.0763        
96             2.796            0.0931         -0.0471        
97             2.796            0.2988         0.0915         
98             2.796            0.5291         0.311          
99             2.796            0.7829         0.5546         
100            2.796            1.0592         0.8226         
101            2.796            1.2921         1.1102         
102            2.796            1.4957         1.3636         
103            2.796            1.6705         1.5725         
104            2.796            1.8242         1.7552         
105            2.796            1.961          1.9155         
106            2.796            2.0808         2.0519         
107            4.018            2.3061         2.1879         
108            4.018            2.508          2.4175         
109            4.018            2.6356         2.518          
110            -1.325           2.7465         2.8802         
111            -0.537           2.7616         2.8734         
112            -0.986           2.7993         2.8855         
113            -2.229           2.8605         2.9217         
114            1.019            2.7297         2.9829         
115            -0.505           2.7258         2.8401         
116            -3.476           2.7792         2.8325         
117            -1.288           2.8173         2.8859         
118            -0.78            2.8272         2.923          
119            -2.949           2.8787         2.9303         
120            0.038            2.8079         2.9818         
121            -0.563           2.788          2.9035         
122            -1.203           2.8092         2.8795         
123            -0.149           2.7355         2.8991         
124            1.849            2.6592         2.8183         
125            2.702            2.6976         2.7349         
126            -0.457           2.6547         2.7733         
127            -0.233           2.5811         2.7255         
128            -1.26            2.5832         2.6454         
129            6.332            2.6568         2.6457         
130            -0.293           2.5764         2.7218         
131            -0.02            2.4519         2.6347         
132            0.542            2.2496         2.501          
133            0.227            2.061          2.2853         
134            -1.487           2.0269         2.0844         
135            -0.549           1.8988         2.0476         
136            -0.395           1.7381         1.9112         
137            -0.626           1.5686         1.7456         
138            -1.072           1.402          1.545          
139            -0.215           1.1679         1.3508         
140            -0.322           0.9284         1.0797         
141            0.635            0.835          0.8059         
142            1.048            0.8102         0.707          
143            1.078            0.7967         0.6888         
144            -0.492           0.5609         0.6834         
145            -0.918           0.2826         0.4174         
146            -1.127           -0.0016        0.1046         
147            -0.784           -0.2074        -0.212         
148            0.051            -0.2655        -0.4344        
149            -0.137           -0.339         -0.4834        
150            0.664            -0.2791        -0.551         
151            0.664            -0.2165        -0.4641        
152            0.664            -0.1525        -0.3763        
153            0.664            -0.0881        -0.2889        
154            0.664            -0.0027        -0.1291        
155            0.664            0.0581         -0.0655        
156            0.664            0.104          -0.0245        
157            0.664            0.155          0.0496         
158            1.303            0.3699         -0.2867        
159            -0.391           0.1683         0.3755         
160            0.265            0.1824         0.1459         
161            0.067            0.1505         0.1635         
162            -1.42            -0.1651        0.1285         
163            -1.343           -0.4069        -0.2288        
164            -1.412           -0.6201        -0.4996        
165            -0.779           -0.68          -0.7018        
166            -1.678           -1.1725        -1.311         
167            -1.654           -1.3389        -1.3168        
168            -1.474           -1.4294        -1.4964        
169            -0.252           -1.2647        -1.5886        
170            0.178            -1.0308        -1.2695        
171            -0.791           -1.1765        -1.6647        
172            0.024            -0.8891        -1.2444        
173            -0.163           -0.732         -0.9138        
174            0.026            -0.5752        -0.734         
175            0.356            -0.3881        -0.5558        
176            0.145            -0.2737        -0.3444        
177            -0.987           -0.3734        -0.217         
178            -0.855           -0.4375        -0.335         
179            -1.073           -0.5292        -0.4113        
180            -0.213           -0.4747        -0.5186        
181            0.4              -0.3309        -0.4567        
182            -0.345           -0.3166        -0.2919        
183            -5.596           -0.1608        0.101          
184            -3.367           -0.9973        -0.1595        
185            -1.916           -1.3412        -1.0683        
186            -0.048           -1.0146        -1.4492        
187            0.025            -0.787         -1.077         
188            0.788            -0.4611        -0.818         
189            -0.219           -0.4091        -0.4497        
190            1.135            -0.1371        -0.3997        
191            -2.905           -0.8692        0.5023         
192            1.934            -0.2481        -0.883         
193            -0.311           -0.2649        -0.2448        
194            1.398            0.1391         -0.2636        
195            -0.548           0.0107         0.1879         
196            0.227            0.0811         0.071          
197            0.1              0.0991         0.1165         
198            -1.152           -0.1176        0.1345         
199            -0.878           -0.2493        -0.1142        
200            -0.159           -0.2406        -0.2648        
201            0.447            -0.1339        -0.2536        
202            -0.237           -0.1487        -0.1301        
203            1.097            0.0473         -0.1474        
204            -0.074           0.0419         0.0791         
205            -0.195           0.0138         0.0559         
206            -1.057           -0.1257        0.0253         
207            -1.073           -0.2559        -0.1264        
208            -1.314           -0.413         -0.2781        
209            -1.014           -0.5182        -0.4597        
210            0.253            -0.4333        -0.5787        
211            -0.552           -0.468         -0.4742        
212            0.947            -0.2784        -0.5114        
213            0.042            -0.234         -0.2859        
214            -1.344           -0.3997        -0.2335        
215            -0.638           -0.4471        -0.4271        
216            -0.938           -0.5352        -0.4802        
217            -0.396           -0.5333        -0.5802        
218            0.399            -0.4093        -0.5742        
219            -0.706           -0.4615        -0.4263        
220            0.496            -0.3292        -0.479         
221            -1.398           -0.5172        -0.3314        
222            -1.358           -0.6737        -0.5485        
223            -0.789           -0.7153        -0.7275        
224            -0.202           -0.6549        -0.7715        
225            0.07             -0.5559        -0.697         
226            -0.85            -0.6123        -0.579         
227            0.473            -0.4549        -0.6425        
228            -0.462           -0.4572        -0.4578        
229            -0.747           -0.5031        -0.4602        
230            -2.079           -0.7486        -0.5132        
231            -1.699           -0.9138        -0.7971        
232            -0.908           -0.9431        -0.9849        
233            -1.035           -0.9622        -0.9584        
234            -2.401           -1.5435        -1.45          
235            -0.753           -1.3948        -1.6642        
236            0.132            -1.0934        -1.4858        
237            -0.608           -1.012         -1.1358        
238            0.6              -0.7186        -1.04          
239            -0.72            -0.7125        -0.7031        
240            -0.107           -0.6024        -0.6972        
241            -1.364           -0.7159        -0.5723        
242            -0.039           -0.6022        -0.7047        
243            -1.025           -0.6573        -0.5748        
244            0.334            -0.4963        -0.6404        
245            -0.055           -0.4114        -0.4558        
246            0.591            -0.2373        -0.3608        
247            0.017            -0.1673        -0.1632        
248            -0.048           -0.1156        -0.088         
249            -0.77            -0.1798        -0.0344        
250            -0.3             -0.1706        -0.1155        
251            -0.448           -0.1866        -0.11          
252            0.494            -0.0616        -0.1336        
253            -0.06            -0.032         0.0075         
254            0.562            0.0866         0.0363         
255            -0.388           0.0498         0.1687         
256            -0.211           0.0399         0.1192         
257            -1.178           -0.1177        0.102          
258            -1.227           -0.2721        -0.0866        
259            0.014            -0.2275        -0.2688        
260            1.058            0.3977         -0.1035        
261            -0.9             -0.0151        0.4355         
262            -0.161           -0.0478        -0.0017        
263            -0.706           -0.1877        -0.0262        
264            0.094            -0.1292        -0.1842        
265            -0.149           -0.1286        -0.1187        
266            0.468            -0.0197        -0.1187        
267            0.676            0.1066         0.004          
268            0.393            0.1695         0.1461         
269            0.145            0.1845         0.2142         
270            0.145            0.1795         0.1853         
271            -0.37            0.1233         0.2232         
272            -0.794           0.0106         0.155          
273            -0.008           0.0129         0.022          
274            -0.472           -0.0508        0.0237         
275            0.915            0.0868         -0.0514        
276            0.929            0.2181         0.1092         
277            0.619            0.2948         0.2607         
278            -0.462           0.2054         0.3468         
279            0.497            0.2626         0.2379         
280            -0.7             0.1353         0.302          
281            -0.17            0.0956         0.1499         
282            -0.316           0.0399         0.0981         
283            1.279            0.191          0.0398         
284            -0.338           0.134          0.2043         
285            0.895            0.2332         0.1459         
286            -4.671           0.2353         0.2374         
287            0.425            0.3006         0.3146         
288            -0.23            0.2245         0.3263         
289            0.957            0.3551         0.2453         
290            0.035            0.3142         0.3745         
291            3.703            0.398          0.3155         
292            1.622            0.5734         0.4162         
293            0.444            0.5854         0.643          
294            0.957            0.666          0.6512         
295            1.198            0.7733         0.7397         
296            -0.257           0.6616         0.8587         
297            -0.181           0.5649         0.7215         
298            -0.699           0.3967         0.6038         
299            -0.981           0.1973         0.4045         
300            -0.537           0.0777         0.1716         
301            0.247            0.0844         0.0344         
302            -0.227           0.0216         0.0458         
303            0.92             0.1363         -0.0242        
304            0.209            0.1373         0.1131         
305            -0.24            0.0718         0.1162         
306            -0.809           -0.0732        0.0417         
307            -1.612           -0.3261        -0.1245        
308            0.196            -0.2852        -0.4145        
309            0.659            -0.175         -0.3598        
310            -0.16            -0.1942        -0.2255        
311            0.603            -0.0954        -0.2437        
312            -0.278           -0.1353        -0.1248        
313            -0.257           -0.1679        -0.1689        
314            -1.272           -0.3492        -0.204         
